

  a_ev_FSRQ =   0.224  z_top_FSRQ =   2.254  log_10_L_star_FSRQ =  34.043
  alpha_FSRQ =   0.658  beta_FSRQ =   2.938  log_10_n0_FSRQ =  -8.989
  tau_evol_BLLac =   1.341  log_10_L_star_BLLac = 32.831  alpha_BLLac =  0.975  beta_BLLac =   1.264  log_10_n0_BLLac =  -7.956
  a_ev_FRII =   0.312  z_top_FRII =   2.171  alpha_FRII =   0.629  beta_FRII =   2.307  log_L_star_FRII =  32.879  log_n_0_FRII =  -7.034


 
  log_10 of normalized differential counts per steradian [log(S^{5/2} dN/dS), S in Jy]  at 150.00 GHz

          log S(Jy)     flat-spectrum    steep-spectrum      Total 
            -7.000          -2.714          -4.622          -2.709
            -6.900          -2.648          -4.526          -2.643
            -6.800          -2.586          -4.431          -2.580
            -6.700          -2.524          -4.336          -2.517
            -6.600          -2.464          -4.242          -2.456
            -6.500          -2.404          -4.148          -2.397
            -6.400          -2.345          -4.055          -2.337
            -6.300          -2.286          -3.962          -2.277
            -6.200          -2.229          -3.868          -2.219
            -6.100          -2.172          -3.770          -2.161
            -6.000          -2.115          -3.676          -2.103
            -5.900          -2.059          -3.578          -2.046
            -5.800          -2.003          -3.477          -1.988
            -5.700          -1.947          -3.381          -1.931
            -5.600          -1.891          -3.275          -1.874
            -5.500          -1.836          -3.170          -1.816
            -5.400          -1.781          -3.058          -1.758
            -5.300          -1.726          -2.946          -1.700
            -5.200          -1.671          -2.832          -1.642
            -5.100          -1.615          -2.710          -1.582
            -5.000          -1.560          -2.575          -1.520
            -4.900          -1.505          -2.435          -1.457
            -4.800          -1.450          -2.291          -1.392
            -4.700          -1.395          -2.128          -1.321
            -4.600          -1.340          -1.959          -1.246
            -4.500          -1.285          -1.805          -1.170
            -4.400          -1.229          -1.682          -1.098
            -4.300          -1.173          -1.577          -1.029
            -4.200          -1.117          -1.482          -0.961
            -4.100          -1.061          -1.392          -0.895
            -4.000          -1.004          -1.304          -0.828
            -3.900          -0.947          -1.218          -0.761
            -3.800          -0.890          -1.133          -0.694
            -3.700          -0.832          -1.049          -0.626
            -3.600          -0.774          -0.968          -0.559
            -3.500          -0.716          -0.887          -0.492
            -3.400          -0.657          -0.808          -0.425
            -3.300          -0.597          -0.730          -0.358
            -3.200          -0.537          -0.659          -0.293
            -3.100          -0.476          -0.588          -0.227
            -3.000          -0.415          -0.522          -0.164
            -2.900          -0.353          -0.468          -0.105
            -2.800          -0.290          -0.422          -0.050
            -2.700          -0.227          -0.392          -0.001
            -2.600          -0.163          -0.391           0.039
            -2.500          -0.098          -0.427           0.069
            -2.400          -0.032          -0.500           0.095
            -2.300           0.034          -0.556           0.133
            -2.200           0.101          -0.598           0.180
            -2.100           0.169          -0.635           0.232
            -2.000           0.237          -0.662           0.289
            -1.900           0.306          -0.690           0.348
            -1.800           0.376          -0.715           0.410
            -1.700           0.447          -0.739           0.474
            -1.600           0.518          -0.759           0.540
            -1.500           0.589          -0.781           0.607
            -1.400           0.661          -0.800           0.676
            -1.300           0.733          -0.818           0.745
            -1.200           0.805          -0.835           0.815
            -1.100           0.877          -0.847           0.885
            -1.000           0.948          -0.863           0.955
            -0.900           1.019          -0.875           1.024
            -0.800           1.088          -0.886           1.092
            -0.700           1.155          -0.896           1.159
            -0.600           1.219          -0.904           1.222
            -0.500           1.279          -0.911           1.282
            -0.400           1.333          -0.922           1.336
            -0.300           1.381          -0.927           1.383
            -0.200           1.418          -0.931           1.420
            -0.100           1.445          -0.935           1.447
             0.000           1.459          -0.944           1.461
             0.100           1.460          -0.946           1.462
             0.200           1.449          -0.949           1.450
             0.300           1.428          -0.952           1.429
             0.400           1.399          -0.955           1.401
             0.500           1.368          -0.957           1.370
             0.600           1.336          -0.964           1.338
             0.700           1.306          -0.965           1.309
             0.800           1.279          -0.967           1.282
             0.900           1.256          -0.966           1.259
             1.000           1.237          -0.970           1.240
             1.100           1.222          -0.969           1.225
             1.200           1.211          -0.970           1.213
             1.300           1.202          -0.970           1.205
             1.400           1.195          -0.970           1.198
             1.500           1.192          -0.976           1.195
             1.600           1.188          -0.972           1.191
             1.700           1.185          -0.975           1.188
             1.800           1.185          -0.975           1.188
             1.900           1.184          -0.976           1.187
             2.000           1.184          -0.976           1.187